Ic (A)

-0.000144053

-0.000144053

-0.000144053

-0.000144053

-0.000144053

-0.000144053

-0.000144053

-0.000144053

-0.000144053

-0.000144053

-0.000144053

-0.000144053

-0.000144053

-0.000144053

-0.000144053

-0.000144053

-0.000144053

-0.000144053

-0.000144053

-0.000144053

-0.000144053

-0.000144053

-0.000144053

-0.000144053

-0.000144053

-0.000107271

-0.000144053

-0.000144053

-0.000107271

-0.000107271

-0.000107271

-0.000144053

-0.000144053

-0.000107271

-0.000144053

-0.000144053

-0.000107271

-0.000107271

-0.000144053

-0.000144053

-0.000107271

-0.000107271

-0.000144053

-0.000107271

-0.000144053

-0.000107271

-0.000107271

-0.000107271

-0.000107271

-0.000107271

-0.000107271

-0.000144053

-0.000144053

-0.000144053

-0.000144053

-0.000144053

-0.000144053

-0.000144053

-0.000144053

-0.000144053

-0.000144053

-0.000144053

-0.000144053

-0.000144053

-0.000144053

-0.000144053

-0.000144053

-0.000144053

-0.000144053

-0.000144053

-0.000144053

-0.000144053

-0.000144053

-0.000144053

-0.000144053

-0.000144053

-0.000144053

-0.000144053

-0.000144053

-0.000144053

-0.000144053

-0.000107271

-0.000144053

-0.000144053

-0.000144053

-0.000107271

-0.000107271

-0.000107271

-0.000107271

-0.000107271

-0.000107271

-0.000107271

-0.000107271

-0.000107271

-0.000107271

-0.000107271

-0.000107271

-0.000107271

-0.000144053

-0.000107271

-0.000107271

-0.000107271

-0.000144053

-0.000144053

-0.000144053

-0.000144053

-0.000144053

-0.000144053

-0.000144053

-0.000144053

-0.000144053

-0.000144053

-0.000144053

-0.000144053

-0.000144053

-0.000144053

-0.000144053

-0.000144053

-0.000144053

-0.000144053

-0.000144053

-0.000107271

-0.000144053

-0.000144053

-0.000144053

-0.000144053

-0.000144053

-0.000144053

-0.000144053

-0.000144053

-0.000144053

-0.000144053

-0.000144053

-0.000144053

-0.000107271

-0.000107271

-0.000144053

-0.000144053

-0.000107271

-0.000107271

-0.000144053

-0.000144053

-0.000107271

-0.000144053

-0.000107271

-0.000107271

-0.000144053

-0.000107271

-0.000144053

-0.000107271

-0.000107271

-0.000107271

-0.000107271

-0.000144053

-0.000144053

-0.000144053

-0.000144053

-0.000144053

-0.000144053

-0.000144053

-0.000144053

-0.000144053

-0.000144053

-0.000144053

-0.000144053

-0.000144053

-0.000144053

-0.000144053

-0.000144053

-0.000144053

-0.000144053

-0.000107271

-0.000144053

-0.000144053

-0.000144053

-0.000144053

-0.000144053

-0.000144053

-0.000144053

-0.000144053

-0.000144053

-0.000144053

-0.000144053

-0.000144053

-0.000144053

-0.000144053

-0.000144053

-0.000144053

-0.000144053

-0.000144053

-0.000144053

-0.000107271

-0.000144053

-0.000144053

-0.000144053

-0.000144053

-0.000144053

-0.000144053

-0.000107271

-0.000107271

-0.000107271

-0.000107271

-0.000107271

-0.000107271

-0.000144053

-0.000144053

-0.000144053

-0.000144053

-0.000144053

-0.000144053

-0.000144053

-0.000144053

-0.000144053

-0.000144053

-0.000144053

-0.000144053

-0.000144053

-0.000144053

-0.000144053

-0.000144053

-0.000144053

-0.000144053

-0.000144053

-0.000144053

-0.000144053

-0.000144053

-0.000144053

-0.000144053

-0.000144053

-0.000144053

-0.000144053

-0.000144053

-0.000144053

-0.000144053

-0.000144053

-0.000144053

-0.000144053

-0.000144053

-0.000144053

-0.000144053

-0.000144053

-0.000107271

-0.000144053

-0.000144053

-0.000144053

-0.000144053

-0.000144053

-0.000107271

-0.000144053

-0.000144053

-0.000107271

-0.000107271

-0.000107271

-0.000144053

-0.000144053

-0.000144053

-0.000144053

-0.000144053

-0.000144053

-0.000144053

-0.000144053

-0.000144053

-0.000144053

-0.000144053

-0.000144053

-0.000144053

-0.000144053

-0.000144053

-0.000144053

-0.000144053

-0.000144053

-0.000144053

-0.000144053

-0.000144053

-0.000144053

-0.000144053

-0.000144053

-0.000144053

-0.000107271

-0.000144053

-0.000144053

-0.000144053

-0.000144053

-0.000107271

-0.000107271

-0.000144053

-0.000144053

-0.000144053

-0.000107271

-0.000107271

-0.000144053

-0.000107271

-0.000107271

-0.000144053

-0.000107271

-0.000144053

-0.000107271

-0.000107271

-0.000144053

-0.000144053

-0.000144053

-0.000144053

-0.000107271

-0.000144053

-0.000107271

-0.000107271

-0.000144053

-0.000144053

-0.000144053

-0.000144053

-0.000144053

-0.000144053

-0.000144053

-0.000144053

-0.000144053

-0.000144053

-0.000144053

-0.000144053

-0.000144053

-0.000144053

-0.000144053

-0.000144053

-0.000144053

-0.000144053

-0.000144053

-0.000144053

-0.000144053

-0.000144053

-0.000144053

-0.000144053

-0.000144053

-0.000144053

-0.000144053

-0.000144053

-0.000144053

-0.000144053

-0.000144053

-0.000144053

-0.000144053

-0.000107271

-0.000107271

-0.000107271

-0.000107271

-0.000107271

-0.000107271

-0.000107271

-0.000144053

-0.000107271

-0.000107271

-0.000144053

-0.000144053

-0.000144053

-0.000144053

-0.000107271

-0.000107271

-0.000144053

-0.000144053

-0.000144053

-0.000144053

-0.000144053

-0.000144053

-0.000144053

-0.000144053

-0.000144053

-0.000144053

-0.000144053

-0.000180834

-0.000144053

-0.000144053

-0.000144053

-0.000144053

-0.000144053

-0.000144053

-0.000144053

-0.000144053

-0.000144053

-0.000144053

-0.000144053

-0.000144053

-0.000144053

-0.000144053

-0.000144053

-0.000144053

-0.000144053

-0.000144053

-0.000144053

-0.000144053

-0.000144053

-0.000144053

-0.000144053

-0.000144053

-0.000144053

-0.000144053

-0.000144053

-0.000144053

-0.000144053

-0.000144053

-0.000107271

-0.000144053

-0.000107271

-0.000107271

-0.000107271

-0.000107271

-0.000107271

-0.000107271

-0.000107271

-0.000107271

-0.000144053

-0.000144053

-0.000144053

-0.000144053

-0.000144053

-0.000144053

-0.000144053

-0.000144053

-0.000107271

-0.000144053

-0.000144053

-0.000144053

-0.000144053

-0.000144053

-0.000144053

-0.000144053

-0.000144053

-0.000144053

-0.000144053

-0.000144053

-0.000107271

-0.000107271

-0.000144053

-0.000144053

-0.000144053

-0.000144053

-0.000107271

-0.000107271

-0.000107271

-0.000144053

-0.000144053

-0.000107271

-0.000107271

-0.000107271

-0.000144053

-0.000107271

-0.000107271

-0.000107271

-0.000107271

-0.000107271

-0.000107271

-0.000107271

-0.000107271

-0.000107271

-0.000107271

-0.000107271

-0.000107271

-0.000107271

-0.000107271

-0.000107271

-0.000107271

-0.000107271

-0.000144053

-3.37E-05

-3.37E-05

3.07E-06

3.07E-06

3.07E-06

3.07E-06

3.99E-05

3.99E-05

3.07E-06

3.99E-05

3.99E-05

3.99E-05

3.99E-05

3.99E-05

3.99E-05

3.99E-05

3.99E-05

3.99E-05

3.99E-05

3.99E-05

7.66E-05

7.66E-05

7.66E-05

7.66E-05

3.99E-05

7.66E-05

7.66E-05

7.66E-05

7.66E-05

7.66E-05

7.66E-05

7.66E-05

7.66E-05

7.66E-05

7.66E-05

7.66E-05

7.66E-05

0.000113415

0.000113415

0.000113415

0.000113415

0.000113415

0.000113415

0.000113415

0.000113415

0.000113415

0.000113415

0.000113415

0.000113415

0.000113415

-0.000144053

0.000554787

0.001069722

0.001327189

0.001474313

0.001547875

0.001621437

0.001658218

0.001695

0.001731781

0.001768562

0.001805343

0.001842124

0.001842124

0.001878905

0.001915686

0.001915686

0.001952467

0.001952467

0.001989248

0.002026029

0.002026029

0.00206281

0.00206281

0.002099591

0.002136372

0.002136372

0.002173153

0.002173153

0.002209934

0.002209934

0.002209934

0.002246715

0.002283496

0.002283496

0.002320277

0.002320277

0.002320277

0.002357058

0.002393839

0.002393839

0.00243062

0.00243062

0.00243062

0.002467401

0.002504182

0.002504182

0.002504182

0.002540963

0.002577744

0.002577744
